Generic	1_converted_55.gen
High wavelength	250
Low wavelength	190
Interval nm	1
Machine	APP
Units	mdeg

Samples	1_converted_60.txt::1_converted_59.txt::1_converted_58.txt::1_converted_57.txt::1_converted_56.txt::1_converted_55.txt

250	   -0.57883	    0	    -0.73574	    0.00000	    0.11394	    0.00000
249	   -0.58509	    0	    -0.67194	    0.00000	    0.048041	    0.00000
248	   -0.74258	    0	    -0.69747	    0.00000	    0.062535	    0.00000
247	   -0.85816	    0	    -0.77073	    0.00000	    0.14235	    0.00000
246	   -0.78856	    0	    -0.82731	    0.00000	    0.11433	    0.00000
245	   -0.79833	    0	    -0.8763	    0.00000	    0.073437	    0.00000
244	   -1.0007	    0	    -0.93273	    0.00000	    0.13825	    0.00000
243	   -1.0724	    0	    -1.0568	    0.00000	    0.063781	    0.00000
242	   -1.114	    0	    -1.1588	    0.00000	    0.12284	    0.00000
241	   -1.3167	    0	    -1.2753	    0.00000	    0.14646	    0.00000
240	   -1.3851	    0	    -1.4343	    0.00000	    0.11783	    0.00000
239	   -1.6798	    0	    -1.6439	    0.00000	    0.2004	    0.00000
238	   -1.8423	    0	    -1.8595	    0.00000	    0.096043	    0.00000
237	   -2.139	    0	    -2.112	    0.00000	    0.089554	    0.00000
236	   -2.3697	    0	    -2.3866	    0.00000	    0.092918	    0.00000
235	   -2.6956	    0	    -2.7395	    0.00000	    0.14437	    0.00000
234	   -3.1247	    0	    -3.0814	    0.00000	    0.12488	    0.00000
233	   -3.5095	    0	    -3.4624	    0.00000	    0.094877	    0.00000
232	   -3.7837	    0	    -3.88	    0.00000	    0.16608	    0.00000
231	   -4.2887	    0	    -4.2729	    0.00000	    0.12231	    0.00000
230	   -4.7598	    0	    -4.6766	    0.00000	    0.13919	    0.00000
229	   -5.0282	    0	    -5.0962	    0.00000	    0.17191	    0.00000
228	   -5.4574	    0	    -5.4483	    0.00000	    0.22485	    0.00000
227	   -5.8572	    0	    -5.8442	    0.00000	    0.11678	    0.00000
226	   -6.1754	    0	    -6.2145	    0.00000	    0.11458	    0.00000
225	   -6.6643	    0	    -6.5606	    0.00000	    0.1447	    0.00000
224	   -6.8139	    0	    -6.951	    0.00000	    0.11233	    0.00000
223	   -7.3054	    0	    -7.2848	    0.00000	    0.24622	    0.00000
222	   -7.6927	    0	    -7.5762	    0.00000	    0.29307	    0.00000
221	   -7.7171	    0	    -7.8222	    0.00000	    0.23219	    0.00000
220	   -7.9944	    0	    -7.9283	    0.00000	    0.38919	    0.00000
219	   -7.9896	    0	    -8.0228	    0.00000	    0.23912	    0.00000
218	   -8.067	    0	    -8.1146	    0.00000	    0.27618	    0.00000
217	   -8.1875	    0	    -8.1064	    0.00000	    0.22133	    0.00000
216	   -8.0727	    0	    -8.0831	    0.00000	    0.27184	    0.00000
215	   -7.9467	    0	    -7.9577	    0.00000	    0.15327	    0.00000
214	   -7.8681	    0	    -7.8527	    0.00000	    0.23008	    0.00000
213	   -7.6978	    0	    -7.8294	    0.00000	    0.17987	    0.00000
212	   -7.8406	    0	    -7.7539	    0.00000	    0.233	    0.00000
211	   -7.7016	    0	    -7.6428	    0.00000	    0.32391	    0.00000
210	   -7.2596	    0	    -7.3072	    0.00000	    0.25821	    0.00000
209	   -6.9693	    0	    -6.8953	    0.00000	    0.31535	    0.00000
208	   -6.1393	    0	    -6.3524	    0.00000	    0.34909	    0.00000
207	   -5.9683	    0	    -5.6847	    0.00000	    0.39933	    0.00000
206	   -4.8532	    0	    -4.9801	    0.00000	    0.3689	    0.00000
205	   -4.0681	    0	    -4.2442	    0.00000	    0.34033	    0.00000
204	   -3.4735	    0	    -3.2807	    0.00000	    0.3629	    0.00000
203	   -2.2545	    0	    -2.2474	    0.00000	    0.40696	    0.00000
202	   -0.84929	    0	    -0.83153	    0.00000	    0.65407	    0.00000
201	   0.73728	    0	    0.74815	    0.00000	    0.64748	    0.00000
200	   2.5954	    0	    2.4121	    0.00000	    0.68557	    0.00000
199	   3.9581	    0	    4.2909	    0.00000	    0.38281	    0.00000
198	   5.9923	    0	    5.9279	    0.00000	    0.19012	    0.00000
197	   7.8115	    0	    7.3286	    0.00000	    0.87005	    0.00000
196	   8.2345	    0	    8.7501	    0.00000	    0.68732	    0.00000
195	   9.546	    0	    9.6447	    0.00000	    1.0378	    0.00000
194	   10.731	    0	    10.142	    0.00000	    1.0547	    0.00000
193	   10.144	    0	    10.421	    0.00000	    1.4017	    0.00000
192	   9.9801	    0	    10.94	    0.00000	    1.2629	    0.00000
191	   9.6469	    0	    8.9483	    0.00000	    1.427	    0.00000
190	   8.7707	    0	    5.8439	    0.00000	    1.7718	    0.00000
