Generic	1_converted_97.gen
High wavelength	250
Low wavelength	190
Interval nm	1
Machine	APP
Units	mdeg

Samples	1_converted_102.txt::1_converted_101.txt::1_converted_100.txt::1_converted_99.txt::1_converted_98.txt::1_converted_97.txt

250	   -0.69097	    0	    -0.81593	    0.00000	    0.12554	    0.00000
249	   -0.65898	    0	    -0.72964	    0.00000	    0.078808	    0.00000
248	   -0.8616	    0	    -0.7606	    0.00000	    0.14506	    0.00000
247	   -0.79358	    0	    -0.79712	    0.00000	    0.099692	    0.00000
246	   -0.8221	    0	    -0.85085	    0.00000	    0.15982	    0.00000
245	   -0.86301	    0	    -0.89607	    0.00000	    0.12148	    0.00000
244	   -1.0508	    0	    -1.0037	    0.00000	    0.079652	    0.00000
243	   -1.1228	    0	    -1.1266	    0.00000	    0.081723	    0.00000
242	   -1.2436	    0	    -1.2544	    0.00000	    0.12736	    0.00000
241	   -1.4014	    0	    -1.4015	    0.00000	    0.2141	    0.00000
240	   -1.5584	    0	    -1.5646	    0.00000	    0.10128	    0.00000
239	   -1.8048	    0	    -1.7633	    0.00000	    0.086222	    0.00000
238	   -1.9354	    0	    -1.9964	    0.00000	    0.090247	    0.00000
237	   -2.2899	    0	    -2.2657	    0.00000	    0.072918	    0.00000
236	   -2.5772	    0	    -2.5526	    0.00000	    0.14823	    0.00000
235	   -2.8975	    0	    -2.9376	    0.00000	    0.060322	    0.00000
234	   -3.2572	    0	    -3.2845	    0.00000	    0.1557	    0.00000
233	   -3.7645	    0	    -3.6631	    0.00000	    0.14538	    0.00000
232	   -3.9457	    0	    -4.0156	    0.00000	    0.12335	    0.00000
231	   -4.3932	    0	    -4.3591	    0.00000	    0.20173	    0.00000
230	   -4.6807	    0	    -4.7153	    0.00000	    0.15749	    0.00000
229	   -5.1286	    0	    -5.1308	    0.00000	    0.077428	    0.00000
228	   -5.568	    0	    -5.5479	    0.00000	    0.16829	    0.00000
227	   -5.9437	    0	    -5.9595	    0.00000	    0.1976	    0.00000
226	   -6.3823	    0	    -6.321	    0.00000	    0.23026	    0.00000
225	   -6.6524	    0	    -6.7218	    0.00000	    0.19814	    0.00000
224	   -7.0695	    0	    -7.1152	    0.00000	    0.1349	    0.00000
223	   -7.5829	    0	    -7.4723	    0.00000	    0.28638	    0.00000
222	   -7.7821	    0	    -7.8123	    0.00000	    0.28319	    0.00000
221	   -8.0426	    0	    -8.0872	    0.00000	    0.13341	    0.00000
220	   -8.2964	    0	    -8.256	    0.00000	    0.16898	    0.00000
219	   -8.4817	    0	    -8.4549	    0.00000	    0.16462	    0.00000
218	   -8.4961	    0	    -8.5834	    0.00000	    0.2759	    0.00000
217	   -8.7569	    0	    -8.6675	    0.00000	    0.23105	    0.00000
216	   -8.704	    0	    -8.7542	    0.00000	    0.18727	    0.00000
215	   -8.7848	    0	    -8.8201	    0.00000	    0.12777	    0.00000
214	   -8.8436	    0	    -8.7521	    0.00000	    0.23463	    0.00000
213	   -8.6982	    0	    -8.7095	    0.00000	    0.29652	    0.00000
212	   -8.4656	    0	    -8.5321	    0.00000	    0.21981	    0.00000
211	   -8.5024	    0	    -8.4194	    0.00000	    0.39807	    0.00000
210	   -8.148	    0	    -8.3379	    0.00000	    0.43855	    0.00000
209	   -8.3463	    0	    -8.1922	    0.00000	    0.43136	    0.00000
208	   -7.9185	    0	    -7.8936	    0.00000	    0.18807	    0.00000
207	   -7.3942	    0	    -7.4049	    0.00000	    0.41149	    0.00000
206	   -6.772	    0	    -6.7713	    0.00000	    0.43543	    0.00000
205	   -5.9305	    0	    -6.0544	    0.00000	    0.35078	    0.00000
204	   -5.4669	    0	    -5.2795	    0.00000	    0.59824	    0.00000
203	   -4.3088	    0	    -4.539	    0.00000	    0.39482	    0.00000
202	   -3.5384	    0	    -3.5287	    0.00000	    0.28493	    0.00000
201	   -2.4886	    0	    -2.1402	    0.00000	    0.33548	    0.00000
200	   -0.2938	    0	    -0.50899	    0.00000	    0.69435	    0.00000
199	   1.564	    0	    1.5387	    0.00000	    0.58944	    0.00000
198	   3.6151	    0	    3.783	    0.00000	    1.0351	    0.00000
197	   5.9663	    0	    5.9513	    0.00000	    0.77454	    0.00000
196	   8.0369	    0	    7.894	    0.00000	    0.67598	    0.00000
195	   9.6254	    0	    9.5397	    0.00000	    1.3054	    0.00000
194	   10.427	    0	    10.794	    0.00000	    0.63079	    0.00000
193	   11.517	    0	    11.134	    0.00000	    2.0946	    0.00000
192	   11.524	    0	    12.139	    0.00000	    2.1926	    0.00000
191	   9.9592	    0	    10.26	    0.00000	    2.4168	    0.00000
190	   10.592	    0	    6.6387	    0.00000	    5.0515	    0.00000
